;*******************************************************************************************
; Molecule      :  BrO                                                                      
; File type     :  Absorption cross section                                                 
; Temperature   :  223 +- 3 Kelvin                                                          
; Instrument    :  FTS BRUKER IFS 120 HR                                                    
; Experiment    :  Flash Photolysis of Br2/O3, observed by Time Resolved Rapid Scan FTS     
; X-Axis        :  Wavelength in Air [nm]                                               
; X-Resolution  :  approx. 0.05 nm (FWHM)                                                   
; Y-Axis        :  BrO absorption cross section [cm^2 / molecule]                           
; Reference     :  O. C. Fleischmann, J. P. Burrows, University of Bremen, 27.10.2000       
;*******************************************************************************************
  300.6701     1.1070e-018
  300.6832     3.1340e-018
  300.6963     1.8490e-018
  300.7094    -2.9760e-018
  300.7225    -4.0310e-018
  300.7356     7.9200e-019
  300.7486     6.8160e-018
  300.7617     7.3220e-018
  300.7748     1.2240e-018
  300.7879     3.6620e-020
  300.8010     7.1520e-019
  300.8141     2.5860e-018
  300.8272     2.7150e-018
  300.8403     3.4910e-018
  300.8534     5.2700e-018
  300.8665     4.0130e-018
  300.8796     4.6430e-019
  300.8927    -1.4090e-018
  300.9058    -7.3870e-019
  300.9189     1.4890e-018
  300.9320     1.0420e-018
  300.9451     2.9820e-019
  300.9582     2.0680e-018
  300.9713     5.5870e-018
  300.9844     3.2830e-018
  300.9975    -1.9580e-018
  301.0106    -2.6340e-018
  301.0237    -4.7360e-019
  301.0368     1.2870e-018
  301.0499     2.3390e-018
  301.0630     3.2620e-018
  301.0762     5.1830e-018
  301.0893     3.2430e-018
  301.1024     3.3930e-018
  301.1155     4.8500e-018
  301.1286     7.0790e-018
  301.1418     7.0120e-018
  301.1549     2.9080e-018
  301.1680     3.2800e-018
  301.1811     3.2910e-018
  301.1942     6.4660e-019
  301.2074    -2.4450e-019
  301.2205     9.5130e-019
  301.2336     1.1180e-018
  301.2468    -1.5980e-019
  301.2599    -8.7700e-019
  301.2730     1.4380e-018
  301.2862     4.1660e-018
  301.2993     3.2890e-018
  301.3124     2.2260e-018
  301.3256     3.0830e-018
  301.3387     2.5450e-018
  301.3518    -2.5100e-019
  301.3650    -1.0050e-018
  301.3781     1.5510e-018
  301.3913     2.0930e-018
  301.4044    -3.7300e-019
  301.4176    -9.7560e-019
  301.4307     2.3840e-018
  301.4438     4.6470e-018
  301.4570     3.6360e-018
  301.4701     3.1290e-018
  301.4833     3.6590e-018
  301.4964     3.5380e-018
  301.5096     2.0370e-018
  301.5227     6.2730e-019
  301.5359     5.8190e-019
  301.5490     3.9530e-019
  301.5622     1.8620e-018
  301.5754     3.1570e-018
  301.5885     6.3540e-018
  301.6017     9.8720e-018
  301.6149     6.6550e-018
  301.6280     3.5750e-018
  301.6412     3.7150e-018
  301.6543     2.3120e-018
  301.6675     1.1390e-018
  301.6807     2.6300e-018
  301.6938     4.4800e-018
  301.7070     5.7910e-018
  301.7202     5.1000e-018
  301.7334     7.1620e-018
  301.7465     7.6020e-018
  301.7597     5.9540e-018
  301.7729     5.0430e-018
  301.7860     7.1780e-018
  301.7992     7.1170e-018
  301.8124     5.0470e-018
  301.8256     3.3930e-018
  301.8388     5.6020e-018
  301.8519     8.8390e-018
  301.8651     7.2930e-018
  301.8783     3.3600e-018
  301.8915     2.9120e-018
  301.9047     3.1570e-018
  301.9179     1.9270e-018
  301.9311     2.5780e-019
  301.9442     1.6910e-018
  301.9575     4.1830e-018
  301.9706     4.0820e-018
  301.9838     3.9290e-018
  301.9970     2.7740e-018
  302.0102     5.2740e-018
  302.0234     5.9270e-018
  302.0366     4.9890e-018
  302.0498     5.6960e-018
  302.0630     5.4040e-018
  302.0762     3.6560e-018
  302.0894     7.6850e-019
  302.1026     1.5110e-018
  302.1158     2.4410e-018
  302.1290     8.0790e-019
  302.1422     1.4840e-019
  302.1555     2.0330e-018
  302.1687     4.9830e-018
  302.1819     4.8580e-018
  302.1951     3.2580e-018
  302.2083     3.9090e-018
  302.2215     4.6910e-018
  302.2347     5.2610e-018
  302.2479     4.6110e-018
  302.2612     3.2370e-018
  302.2744     2.9570e-018
  302.2876     2.1980e-018
  302.3008     8.1820e-019
  302.3141     9.5870e-019
  302.3273     1.1350e-018
  302.3405     9.8510e-019
  302.3537     8.9980e-019
  302.3670     2.3490e-018
  302.3802     3.3940e-018
  302.3934     2.8410e-018
  302.4067     2.0280e-018
  302.4199     1.3060e-018
  302.4331     1.4510e-018
  302.4463     2.1900e-018
  302.4596     1.8780e-018
  302.4728     2.6320e-018
  302.4860     9.3770e-019
  302.4993     1.7880e-019
  302.5125     3.9170e-019
  302.5258     1.1840e-018
  302.5390     2.0550e-018
  302.5523     3.5180e-018
  302.5655     3.6770e-018
  302.5787     2.4060e-018
  302.5920     1.2530e-018
  302.6053     1.6430e-018
  302.6185     2.9080e-018
  302.6317     3.4030e-018
  302.6450     2.0660e-018
  302.6583     1.2220e-018
  302.6715     1.7400e-018
  302.6847     2.8910e-018
  302.6980     3.9970e-018
  302.7113     3.9220e-018
  302.7245     2.1900e-018
  302.7378     6.0430e-019
  302.7511     9.9490e-019
  302.7643     2.3760e-018
  302.7776     3.7600e-018
  302.7908     1.2610e-018
  302.8041    -1.1460e-018
  302.8174    -1.8830e-018
  302.8306    -1.4440e-018
  302.8439    -3.9470e-019
  302.8572    -7.2930e-019
  302.8704     3.1990e-019
  302.8837     4.6270e-020
  302.8970    -1.4520e-018
  302.9103    -1.0050e-018
  302.9235     7.6040e-019
  302.9368     2.9490e-018
  302.9501     2.2240e-018
  302.9634     1.4230e-021
  302.9767    -5.8680e-019
  302.9899    -1.1620e-018
  303.0032    -2.1570e-018
  303.0165    -1.8670e-018
  303.0298    -8.8340e-020
  303.0431     1.5590e-018
  303.0564     7.9910e-019
  303.0697     7.9350e-019
  303.0829     7.7150e-019
  303.0962     5.8800e-019
  303.1095     1.7090e-019
  303.1228    -9.6410e-019
  303.1361     2.9480e-019
  303.1494     2.6480e-018
  303.1627     2.9030e-018
  303.1760     2.2800e-018
  303.1893     7.2710e-019
  303.2026     1.1040e-019
  303.2159    -2.7590e-019
  303.2292    -6.7530e-019
  303.2425    -2.5580e-019
  303.2558    -4.8930e-019
  303.2691     7.2230e-022
  303.2824     1.0880e-018
  303.2957     2.7230e-018
  303.3091     2.4320e-018
  303.3224     6.1760e-019
  303.3357     3.0660e-019
  303.3490     1.2880e-018
  303.3623     2.7130e-018
  303.3756     2.5630e-018
  303.3889     1.5970e-018
  303.4023     8.7300e-019
  303.4156     1.7710e-018
  303.4289     2.9580e-018
  303.4422     2.7840e-018
  303.4555     2.3710e-018
  303.4689     2.2210e-018
  303.4822     2.5660e-018
  303.4955     1.4470e-018
  303.5088    -7.5970e-019
  303.5222    -9.4270e-019
  303.5355     1.1930e-018
  303.5488     3.4150e-018
  303.5622     3.2660e-018
  303.5755     1.3300e-018
  303.5888     4.5410e-019
  303.6022     9.9020e-019
  303.6155     3.4300e-020
  303.6288     2.6860e-019
  303.6422    -3.2330e-019
  303.6555    -7.8960e-019
  303.6689     5.9450e-019
  303.6822     2.2430e-018
  303.6955     3.6360e-018
  303.7089     9.3380e-019
  303.7222    -1.1910e-018
  303.7356    -3.9090e-019
  303.7489     3.1730e-018
  303.7623     3.1310e-018
  303.7756    -2.2770e-019
  303.7890    -1.3390e-018
  303.8024     1.6660e-018
  303.8157     3.6890e-018
  303.8290     1.8340e-018
  303.8424     2.8260e-019
  303.8558     1.4220e-018
  303.8691     4.3580e-018
  303.8825     3.3380e-018
  303.8958     6.9760e-019
  303.9092     4.8770e-019
  303.9226     2.6420e-018
  303.9359     4.5530e-018
  303.9493     4.2360e-018
  303.9627     2.1990e-018
  303.9760     7.1770e-019
  303.9894     1.8400e-018
  304.0028     2.5880e-018
  304.0161     1.4730e-018
  304.0295     1.3000e-019
  304.0429     1.3380e-018
  304.0563     4.9380e-018
  304.0696     5.5540e-018
  304.0830     3.3360e-018
  304.0964     1.5280e-018
  304.1098     1.7070e-018
  304.1232     2.7670e-018
  304.1365     3.0150e-018
  304.1499     3.0890e-018
  304.1633     5.6970e-018
  304.1767     7.7670e-018
  304.1901     6.8150e-018
  304.2035     4.4710e-018
  304.2169     5.0250e-018
  304.2303     7.7120e-018
  304.2436     7.3880e-018
  304.2570     5.3960e-018
  304.2704     4.9820e-018
  304.2838     6.1780e-018
  304.2972     7.3810e-018
  304.3106     6.9010e-018
  304.3240     6.7630e-018
  304.3374     6.5790e-018
  304.3508     6.4330e-018
  304.3642     6.4470e-018
  304.3776     6.0030e-018
  304.3910     4.3080e-018
  304.4045     4.7740e-018
  304.4179     6.7630e-018
  304.4313     6.8030e-018
  304.4446     5.0360e-018
  304.4581     4.2060e-018
  304.4715     6.5300e-018
  304.4849     8.0030e-018
  304.4983     7.4880e-018
  304.5117     6.5040e-018
  304.5251     7.3800e-018
  304.5386     8.4310e-018
  304.5520     5.7410e-018
  304.5654     2.8390e-018
  304.5788     3.7960e-018
  304.5922     6.9520e-018
  304.6057     7.7990e-018
  304.6191     3.9640e-018
  304.6325     2.0250e-018
  304.6459     3.4380e-018
  304.6594     5.3450e-018
  304.6728     5.0120e-018
  304.6862     5.7900e-018
  304.6997     6.8710e-018
  304.7131     6.8410e-018
  304.7265     5.6620e-018
  304.7400     5.7140e-018
  304.7534     6.7870e-018
  304.7669     6.1370e-018
  304.7803     4.5740e-018
  304.7937     4.3880e-018
  304.8072     6.3920e-018
  304.8206     6.5300e-018
  304.8341     3.1340e-018
  304.8475     6.3930e-019
  304.8610     2.2640e-018
  304.8744     6.3520e-018
  304.8878     7.9230e-018
  304.9013     4.9930e-018
  304.9148     1.6880e-018
  304.9282     5.3970e-019
  304.9416     1.6810e-018
  304.9551     3.8720e-018
  304.9686     4.8740e-018
  304.9820     3.3170e-018
  304.9955     2.6530e-018
  305.0089     2.7810e-018
  305.0224     1.7790e-018
  305.0359     1.2290e-018
  305.0493     1.1140e-018
  305.0628     2.4040e-018
  305.0763     3.9400e-018
  305.0897     4.1870e-018
  305.1032     4.1600e-018
  305.1167     4.4770e-018
  305.1301     3.6850e-018
  305.1436     2.2670e-018
  305.1571     1.9700e-018
  305.1706     1.8270e-018
  305.1840     1.4930e-018
  305.1975     8.0350e-019
  305.2110     8.7360e-019
  305.2245     2.3940e-018
  305.2379     4.4100e-018
  305.2514     3.0640e-018
  305.2649     6.3310e-019
  305.2784    -1.9450e-020
  305.2919     1.2210e-018
  305.3054     2.5590e-018
  305.3188     2.5310e-018
  305.3323     2.4020e-018
  305.3458     2.4570e-018
  305.3593     2.0280e-018
  305.3728     1.5990e-018
  305.3863     1.2980e-018
  305.3998     9.5180e-019
  305.4133     3.0540e-019
  305.4268    -6.1970e-019
  305.4403     5.0320e-020
  305.4538     9.1900e-019
  305.4673     1.6670e-018
  305.4808     1.5790e-018
  305.4943     1.8490e-018
  305.5078     2.4730e-018
  305.5213     1.9390e-018
  305.5348     6.3060e-019
  305.5483     4.2810e-019
  305.5618     1.4230e-018
  305.5753     1.8910e-018
  305.5888     1.7690e-018
  305.6023     1.2640e-018
  305.6159     7.3150e-019
  305.6294     2.7070e-019
  305.6429     5.0750e-019
  305.6564     9.3840e-019
  305.6699     1.5990e-018
  305.6834     2.0510e-018
  305.6970     2.0560e-018
  305.7105     2.2670e-018
  305.7240     2.2620e-018
  305.7375     2.9390e-018
  305.7510     2.9220e-018
  305.7646     3.0270e-018
  305.7781     2.1360e-018
  305.7916     2.0490e-018
  305.8051     2.6640e-018
  305.8187     2.2600e-018
  305.8322     2.7780e-019
  305.8458    -1.7400e-018
  305.8593    -1.0860e-018
  305.8728     2.1310e-018
  305.8864     4.2190e-018
  305.8999     3.1150e-018
  305.9134     2.8180e-018
  305.9270     3.9980e-018
  305.9405     4.7920e-018
  305.9541     2.7930e-018
  305.9676     8.0070e-019
  305.9811     1.6790e-019
  305.9947     2.0580e-019
  306.0082     5.7230e-019
  306.0218     1.4610e-018
  306.0354     2.7860e-018
  306.0489     2.3570e-018
  306.0625     2.8500e-019
  306.0760    -4.4890e-019
  306.0896     1.4540e-018
  306.1031     2.6620e-018
  306.1167     9.3780e-019
  306.1302    -1.0130e-018
  306.1438    -4.1790e-019
  306.1573     1.0260e-018
  306.1709     1.1170e-018
  306.1845    -5.3300e-019
  306.1980    -4.1490e-019
  306.2116     1.2410e-018
  306.2252     1.3730e-018
  306.2388    -4.9770e-019
  306.2523    -5.9390e-019
  306.2659     1.6720e-018
  306.2794     4.2580e-018
  306.2930     4.5300e-018
  306.3066     2.3890e-018
  306.3202     1.1300e-018
  306.3338     1.2070e-018
  306.3473     1.2620e-018
  306.3609     8.3750e-019
  306.3745     7.4920e-019
  306.3881     1.4450e-018
  306.4017     2.6310e-018
  306.4152     3.2990e-018
  306.4288     3.0760e-018
  306.4424     2.8380e-018
  306.4560     2.5940e-018
  306.4696     2.1610e-018
  306.4832     2.1630e-018
  306.4968     1.7140e-018
  306.5104     1.2900e-018
  306.5240     1.4010e-018
  306.5375     2.2200e-018
  306.5511     1.5910e-018
  306.5647    -7.3760e-020
  306.5783    -1.0770e-018
  306.5919     4.0220e-019
  306.6055     3.0950e-018
  306.6191     3.1010e-018
  306.6327     7.7160e-019
  306.6463     4.0140e-019
  306.6599     2.0970e-018
  306.6736     2.2380e-018
  306.6872    -3.0500e-019
  306.7008    -1.2990e-018
  306.7144     1.1660e-018
  306.7280     4.3880e-018
  306.7416     3.5050e-018
  306.7552     1.5220e-018
  306.7688     1.3180e-018
  306.7825     2.8370e-018
  306.7961     3.1460e-018
  306.8097     2.0850e-018
  306.8233     2.1980e-018
  306.8369     2.8920e-018
  306.8505     3.4000e-018
  306.8642     3.5430e-018
  306.8778     3.6720e-018
  306.8914     4.7210e-018
  306.9051     4.8080e-018
  306.9187     3.5940e-018
  306.9323     2.5410e-018
  306.9459     3.1960e-018
  306.9596     4.2780e-018
  306.9732     5.0320e-018
  306.9868     4.9290e-018
  307.0005     5.1550e-018
  307.0141     6.2060e-018
  307.0277     6.4980e-018
  307.0414     6.1080e-018
  307.0550     5.2520e-018
  307.0687     5.5590e-018
  307.0823     7.0500e-018
  307.0960     7.9980e-018
  307.1096     6.8160e-018
  307.1232     5.4210e-018
  307.1369     6.1250e-018
  307.1505     7.8330e-018
  307.1642     8.2050e-018
  307.1778     7.2650e-018
  307.1915     6.7360e-018
  307.2052     6.9740e-018
  307.2188     7.0280e-018
  307.2325     6.7360e-018
  307.2461     6.9500e-018
  307.2598     8.3500e-018
  307.2734     8.9160e-018
  307.2871     7.4890e-018
  307.3008     6.7860e-018
  307.3144     6.7090e-018
  307.3281     7.4820e-018
  307.3418     8.4940e-018
  307.3554     9.5120e-018
  307.3691     1.0880e-017
  307.3828     1.0600e-017
  307.3964     8.5610e-018
  307.4101     6.6910e-018
  307.4238     6.4270e-018
  307.4375     6.3820e-018
  307.4511     6.2540e-018
  307.4648     6.7240e-018
  307.4785     8.0750e-018
  307.4922     8.5710e-018
  307.5058     8.2470e-018
  307.5195     7.9190e-018
  307.5332     8.2860e-018
  307.5469     8.7860e-018
  307.5606     7.6830e-018
  307.5743     6.4170e-018
  307.5880     6.2720e-018
  307.6017     7.4550e-018
  307.6153     7.3160e-018
  307.6290     5.8720e-018
  307.6427     5.1380e-018
  307.6564     6.2990e-018
  307.6701     8.4960e-018
  307.6838     7.8870e-018
  307.6975     5.4130e-018
  307.7112     4.4360e-018
  307.7249     5.4900e-018
  307.7386     6.1920e-018
  307.7523     5.0660e-018
  307.7660     4.1710e-018
  307.7797     4.7400e-018
  307.7934     5.4260e-018
  307.8071     6.0030e-018
  307.8208     6.7570e-018
  307.8346     7.4540e-018
  307.8483     7.0460e-018
  307.8620     5.7350e-018
  307.8757     4.5680e-018
  307.8894     4.2890e-018
  307.9031     4.4430e-018
  307.9168     4.4530e-018
  307.9306     4.5920e-018
  307.9443     4.5260e-018
  307.9580     4.0730e-018
  307.9717     3.2060e-018
  307.9854     2.9350e-018
  307.9992     3.7440e-018
  308.0129     3.9150e-018
  308.0266     3.5280e-018
  308.0403     3.5130e-018
  308.0541     3.8740e-018
  308.0678     4.3890e-018
  308.0815     4.3560e-018
  308.0953     4.3290e-018
  308.1090     4.3120e-018
  308.1227     3.5900e-018
  308.1365     2.6270e-018
  308.1502     2.5620e-018
  308.1640     3.0840e-018
  308.1777     3.3580e-018
  308.1914     3.1310e-018
  308.2052     3.0990e-018
  308.2189     2.9450e-018
  308.2327     2.3700e-018
  308.2464     2.3250e-018
  308.2602     3.4480e-018
  308.2739     4.6640e-018
  308.2877     4.4380e-018
  308.3014     3.2670e-018
  308.3152     2.5260e-018
  308.3289     2.9050e-018
  308.3427     3.3240e-018
  308.3564     3.0030e-018
  308.3702     1.8960e-018
  308.3839     6.4330e-019
  308.3977    -4.2960e-022
  308.4115     8.1980e-019
  308.4252     1.9690e-018
  308.4390     2.0860e-018
  308.4528     1.3580e-018
  308.4665     1.2570e-018
  308.4803     2.1520e-018
  308.4941     3.1100e-018
  308.5078     3.2380e-018
  308.5216     2.7760e-018
  308.5354     2.2910e-018
  308.5491     1.1960e-018
  308.5629     3.0330e-019
  308.5767     9.0220e-019
  308.5905     2.6220e-018
  308.6043     2.8670e-018
  308.6180     1.4640e-018
  308.6318     6.0700e-019
  308.6456     1.1950e-018
  308.6594     1.6370e-018
  308.6732     1.1270e-018
  308.6870     9.4070e-019
  308.7007     2.2940e-018
  308.7145     3.6410e-018
  308.7283     3.1250e-018
  308.7421     2.3960e-018
  308.7559     2.4050e-018
  308.7697     2.2130e-018
  308.7835     1.4990e-018
  308.7973     1.4800e-018
  308.8111     2.1920e-018
  308.8249     2.9260e-018
  308.8387     2.6110e-018
  308.8525     2.1590e-018
  308.8663     2.2790e-018
  308.8801     1.9020e-018
  308.8939     6.0810e-019
  308.9077    -6.3250e-020
  308.9215     1.1620e-018
  308.9353     3.0460e-018
  308.9491     3.0150e-018
  308.9629     1.7480e-018
  308.9767     9.0620e-019
  308.9906     5.8660e-019
  309.0044     1.7310e-019
  309.0182     2.7280e-019
  309.0320     1.8560e-018
  309.0458     2.7410e-018
  309.0596     1.6350e-018
  309.0735     4.0600e-019
  309.0873     1.0990e-018
  309.1011     2.8730e-018
  309.1149     2.8450e-018
  309.1288     1.5850e-018
  309.1426     9.2580e-019
  309.1564     9.3580e-019
  309.1702     1.2350e-018
  309.1841     6.0280e-019
  309.1979     5.2880e-019
  309.2117     1.1380e-018
  309.2256     1.7060e-018
  309.2394     2.2380e-018
  309.2532     2.6800e-018
  309.2671     2.3770e-018
  309.2809     1.0870e-018
  309.2947     8.0570e-019
  309.3086     1.8480e-018
  309.3224     2.5320e-018
  309.3363     1.7850e-018
  309.3501     1.1970e-020
  309.3640    -8.8370e-019
  309.3778    -3.5170e-019
  309.3917     5.6230e-019
  309.4055     1.3480e-018
  309.4194     1.5740e-018
  309.4332     1.0530e-018
  309.4471     4.2950e-019
  309.4609     1.3420e-020
  309.4748     1.1840e-019
  309.4887     4.3340e-019
  309.5025     1.1770e-018
  309.5164     2.1620e-018
  309.5302     3.0120e-018
  309.5441     2.7190e-018
  309.5579     1.2010e-018
  309.5718     4.1300e-019
  309.5857     9.6430e-019
  309.5995     1.7570e-018
  309.6134     1.3370e-018
  309.6273    -8.3300e-020
  309.6412    -5.2590e-019
  309.6550     6.3290e-019
  309.6689     2.2040e-018
  309.6828     2.4900e-018
  309.6967     1.4640e-018
  309.7105     7.8970e-019
  309.7244     1.9230e-018
  309.7383     3.5900e-018
  309.7522     2.7100e-018
  309.7660     7.8440e-019
  309.7799     2.7900e-019
  309.7938     2.0460e-018
  309.8077     3.7110e-018
  309.8216     2.0630e-018
  309.8355    -4.0410e-019
  309.8494    -2.8310e-019
  309.8633     1.8090e-018
  309.8772     3.2860e-018
  309.8910     2.9990e-018
  309.9050     2.8190e-018
  309.9188     3.0520e-018
  309.9327     2.8130e-018
  309.9466     2.1760e-018
  309.9605     1.9930e-018
  309.9744     2.6780e-018
  309.9883     3.3000e-018
  310.0022     3.4650e-018
  310.0162     3.7610e-018
  310.0300     4.5480e-018
  310.0440     4.7410e-018
  310.0579     4.7930e-018
  310.0718     5.3690e-018
  310.0857     5.8990e-018
  310.0996     5.9350e-018
  310.1135     6.0880e-018
  310.1274     7.1670e-018
  310.1414     8.1300e-018
